File: data/_Old/Sept 9 MPPT 8 Pixel test/2022.09.09 - Batch#17_MPPTTEST/2022-09-09 -- Batch12_MPPTTEST Charts/2022-09-09 -- Batch12_MPPTTEST_Log.csv
Batch,Device,Pixel,Variable,User,Cell Stack,Architecture,Scan number,Pin[mW/cm2],Voc[V] Rv,Jsc[mA/cm2] Rv,FF[%] Rv,PCE[%] Rv,Voc[V] Fw,Jsc[mA/cm2] Fw,FF[%] Fw,PCE[%] Fw,Time_MPP [s],Stabilized_MPP [%],Preconditioning Protocol,Sweep Speed,Measurement Start Date
2022-09-09 -- Batch12_MPPTTEST,SK17,p1,MPPTTEST,andrew,Glass | FTO | TiO2-c | TiO2-mp | Cs0.05FA0.79MA0.16PbI2.49Br0.51 | spiro-OMeTAD | Au,nip,0,100.0,1.07,21.13,70.35,15.91,1.07,19.87,56.39,11.99,118.816,12.413,False,50.0,2022-09-09 11:00:00
2022-09-09 -- Batch12_MPPTTEST,SK17,p2,MPPTTEST,andrew,Glass | FTO | TiO2-c | TiO2-mp | Cs0.05FA0.79MA0.16PbI2.49Br0.51 | spiro-OMeTAD | Au,nip,0,100.0,1.12,19.76,64.59,14.3,1.07,18.98,58.39,11.86,118.816,12.1706,False,50.0,2022-09-09 11:00:00
2022-09-09 -- Batch12_MPPTTEST,SK17,p3,MPPTTEST,andrew,Glass | FTO | TiO2-c | TiO2-mp | Cs0.05FA0.79MA0.16PbI2.49Br0.51 | spiro-OMeTAD | Au,nip,0,100.0,1.06,20.65,68.73,15.04,1.07,19.87,59.08,12.56,118.816,12.7077,False,50.0,2022-09-09 11:00:00
2022-09-09 -- Batch12_MPPTTEST,SK17,p4,MPPTTEST,andrew,Glass | FTO | TiO2-c | TiO2-mp | Cs0.05FA0.79MA0.16PbI2.49Br0.51 | spiro-OMeTAD | Au,nip,0,100.0,1.11,19.56,65.54,14.23,1.07,18.92,58.48,11.84,118.816,12.3919,False,50.0,2022-09-09 11:00:00
2022-09-09 -- Batch12_MPPTTEST,SK17,p5,MPPTTEST,andrew,Glass | FTO | TiO2-c | TiO2-mp | Cs0.05FA0.79MA0.16PbI2.49Br0.51 | spiro-OMeTAD | Au,nip,0,100.0,1.06,18.81,68.55,13.67,1.07,18.14,57.43,11.15,118.816,11.5735,False,50.0,2022-09-09 11:00:00
2022-09-09 -- Batch12_MPPTTEST,SK17,p6,MPPTTEST,andrew,Glass | FTO | TiO2-c | TiO2-mp | Cs0.05FA0.79MA0.16PbI2.49Br0.51 | spiro-OMeTAD | Au,nip,0,100.0,1.12,19.15,64.39,13.81,1.07,18.58,57.64,11.46,118.816,11.9871,False,50.0,2022-09-09 11:00:00
2022-09-09 -- Batch12_MPPTTEST,SK17,p7,MPPTTEST,andrew,Glass | FTO | TiO2-c | TiO2-mp | Cs0.05FA0.79MA0.16PbI2.49Br0.51 | spiro-OMeTAD | Au,nip,0,100.0,1.06,20.2,68.22,14.61,1.07,19.46,57.51,11.97,118.816,12.504,False,50.0,2022-09-09 11:00:00
2022-09-09 -- Batch12_MPPTTEST,SK17,p8,MPPTTEST,andrew,Glass | FTO | TiO2-c | TiO2-mp | Cs0.05FA0.79MA0.16PbI2.49Br0.51 | spiro-OMeTAD | Au,nip,0,100.0,1.12,19.21,64.36,13.85,1.07,18.45,56.77,11.21,118.816,11.7966,False,50.0,2022-09-09 11:00:00