File: data/2023-04-25 --Litos vs stability setup test/2023-04-25 --Litos vs stability setup test_Log.csv
Batch,Device,Pixel,Variable,User,Cell Stack,Architecture,Scan number,Pin[mW/cm2],Voc[V] Rv,Jsc[mA/cm2] Rv,FF[%] Rv,PCE[%] Rv,Voc[V] Fw,Jsc[mA/cm2] Fw,FF[%] Fw,PCE[%] Fw,Time_MPP [s],Stabilized_MPP [%],Preconditioning Protocol,Sweep Speed,Measurement Start Date
2023-04-25 --Litos vs stability setup test,KB09,p1,test,Carlo,Glass | FTO | TiO2-c | TiO2-mp | Cs0.05FA0.79MA0.16PbI2.49Br0.51 | spiro-OMeTAD | Au,nip,0,100.0,0.36,21.36,28.97,2.23,0.28,20.75,40.72,2.37,58.1275,2.3225,False,50.0,2023-04-25 02:00:00
2023-04-25 --Litos vs stability setup test,KB09,p2,test,Carlo,Glass | FTO | TiO2-c | TiO2-mp | Cs0.05FA0.79MA0.16PbI2.49Br0.51 | spiro-OMeTAD | Au,nip,0,100.0,0.99,21.74,57.66,12.41,0.97,21.75,56.45,11.91,58.1275,11.8388,False,50.0,2023-04-25 02:00:00
2023-04-25 --Litos vs stability setup test,KB09,p3,test,Carlo,Glass | FTO | TiO2-c | TiO2-mp | Cs0.05FA0.79MA0.16PbI2.49Br0.51 | spiro-OMeTAD | Au,nip,0,100.0,0.98,22.83,57.51,12.87,0.96,22.86,58.79,12.9,58.1275,12.6351,False,50.0,2023-04-25 02:00:00
2023-04-25 --Litos vs stability setup test,KB09,p4,test,Carlo,Glass | FTO | TiO2-c | TiO2-mp | Cs0.05FA0.79MA0.16PbI2.49Br0.51 | spiro-OMeTAD | Au,nip,0,100.0,,,,,,,,,58.1275,4.25704e-05,False,50.0,2023-04-25 02:00:00
2023-04-25 --Litos vs stability setup test,KB09,p5,test,Carlo,Glass | FTO | TiO2-c | TiO2-mp | Cs0.05FA0.79MA0.16PbI2.49Br0.51 | spiro-OMeTAD | Au,nip,0,100.0,0.9,23.29,47.43,9.94,0.87,23.21,47.71,9.63,58.1275,9.47824,False,50.0,2023-04-25 02:00:00
2023-04-25 --Litos vs stability setup test,KB09,p6,test,Carlo,Glass | FTO | TiO2-c | TiO2-mp | Cs0.05FA0.79MA0.16PbI2.49Br0.51 | spiro-OMeTAD | Au,nip,0,100.0,0.91,22.29,44.15,8.96,0.88,22.21,45.29,8.85,58.1275,8.99968,False,50.0,2023-04-25 02:00:00
2023-04-25 --Litos vs stability setup test,KB09,p7,test,Carlo,Glass | FTO | TiO2-c | TiO2-mp | Cs0.05FA0.79MA0.16PbI2.49Br0.51 | spiro-OMeTAD | Au,nip,0,100.0,0.9,22.08,60.37,12.0,0.92,21.92,54.27,10.94,58.1275,10.9349,False,50.0,2023-04-25 02:00:00
2023-04-25 --Litos vs stability setup test,KB09,p8,test,Carlo,Glass | FTO | TiO2-c | TiO2-mp | Cs0.05FA0.79MA0.16PbI2.49Br0.51 | spiro-OMeTAD | Au,nip,0,100.0,,,,,,,,,58.1275,0.0,False,50.0,2023-04-25 02:00:00
2023-04-25 --Litos vs stability setup test,KB41,p1,test,Carlo,Glass | FTO | TiO2-c | TiO2-mp | Cs0.05FA0.79MA0.16PbI2.49Br0.51 | spiro-OMeTAD | Au,nip,0,100.0,1.04,22.08,54.88,12.6,1.01,22.0,54.48,12.11,58.1275,11.9249,False,50.0,2023-04-25 02:00:00
2023-04-25 --Litos vs stability setup test,KB41,p2,test,Carlo,Glass | FTO | TiO2-c | TiO2-mp | Cs0.05FA0.79MA0.16PbI2.49Br0.51 | spiro-OMeTAD | Au,nip,0,100.0,0.18,19.53,29.98,1.05,0.2,20.56,28.68,1.18,58.1275,1.40398,False,50.0,2023-04-25 02:00:00
2023-04-25 --Litos vs stability setup test,KB41,p3,test,Carlo,Glass | FTO | TiO2-c | TiO2-mp | Cs0.05FA0.79MA0.16PbI2.49Br0.51 | spiro-OMeTAD | Au,nip,0,100.0,1.02,26.48,58.25,15.73,1.0,26.36,60.92,16.06,58.1275,15.6915,False,50.0,2023-04-25 02:00:00
2023-04-25 --Litos vs stability setup test,KB41,p4,test,Carlo,Glass | FTO | TiO2-c | TiO2-mp | Cs0.05FA0.79MA0.16PbI2.49Br0.51 | spiro-OMeTAD | Au,nip,0,100.0,,,,,,,,,58.1275,0.0384,False,50.0,2023-04-25 02:00:00
2023-04-25 --Litos vs stability setup test,KB41,p5,test,Carlo,Glass | FTO | TiO2-c | TiO2-mp | Cs0.05FA0.79MA0.16PbI2.49Br0.51 | spiro-OMeTAD | Au,nip,0,100.0,0.99,20.33,58.68,11.81,1.01,20.24,56.94,11.64,58.1275,11.445,False,50.0,2023-04-25 02:00:00
2023-04-25 --Litos vs stability setup test,KB41,p6,test,Carlo,Glass | FTO | TiO2-c | TiO2-mp | Cs0.05FA0.79MA0.16PbI2.49Br0.51 | spiro-OMeTAD | Au,nip,0,100.0,,,,,,,,,58.1275,0.0648539,False,50.0,2023-04-25 02:00:00
2023-04-25 --Litos vs stability setup test,KB41,p7,test,Carlo,Glass | FTO | TiO2-c | TiO2-mp | Cs0.05FA0.79MA0.16PbI2.49Br0.51 | spiro-OMeTAD | Au,nip,0,100.0,0.91,18.02,54.59,8.95,0.97,17.57,46.98,8.01,58.1275,7.44944,False,50.0,2023-04-25 02:00:00
2023-04-25 --Litos vs stability setup test,KB41,p8,test,Carlo,Glass | FTO | TiO2-c | TiO2-mp | Cs0.05FA0.79MA0.16PbI2.49Br0.51 | spiro-OMeTAD | Au,nip,0,100.0,0.96,21.06,56.8,11.48,0.97,20.89,54.43,11.03,58.1275,9.32453,False,50.0,2023-04-25 02:00:00
2023-04-25 --Litos vs stability setup test,KB49,p1,test,Carlo,Glass | FTO | TiO2-c | TiO2-mp | Cs0.05FA0.79MA0.16PbI2.49Br0.51 | spiro-OMeTAD | Au,nip,0,100.0,1.04,21.8,60.16,13.64,1.01,21.62,54.33,11.86,58.1275,12.2019,False,50.0,2023-04-25 02:00:00
2023-04-25 --Litos vs stability setup test,KB49,p2,test,Carlo,Glass | FTO | TiO2-c | TiO2-mp | Cs0.05FA0.79MA0.16PbI2.49Br0.51 | spiro-OMeTAD | Au,nip,0,100.0,,,,,,,,,58.1275,0.0,False,50.0,2023-04-25 02:00:00
2023-04-25 --Litos vs stability setup test,KB49,p3,test,Carlo,Glass | FTO | TiO2-c | TiO2-mp | Cs0.05FA0.79MA0.16PbI2.49Br0.51 | spiro-OMeTAD | Au,nip,0,100.0,0.99,20.62,60.6,12.37,0.97,20.48,54.82,10.89,58.1275,11.1242,False,50.0,2023-04-25 02:00:00
2023-04-25 --Litos vs stability setup test,KB49,p4,test,Carlo,Glass | FTO | TiO2-c | TiO2-mp | Cs0.05FA0.79MA0.16PbI2.49Br0.51 | spiro-OMeTAD | Au,nip,0,100.0,,,,,,,,,58.1275,8.88162e-05,False,50.0,2023-04-25 02:00:00
2023-04-25 --Litos vs stability setup test,KB49,p5,test,Carlo,Glass | FTO | TiO2-c | TiO2-mp | Cs0.05FA0.79MA0.16PbI2.49Br0.51 | spiro-OMeTAD | Au,nip,0,100.0,1.0,20.69,61.51,12.73,0.97,20.5,51.61,10.26,58.1275,10.5982,False,50.0,2023-04-25 02:00:00
2023-04-25 --Litos vs stability setup test,KB49,p6,test,Carlo,Glass | FTO | TiO2-c | TiO2-mp | Cs0.05FA0.79MA0.16PbI2.49Br0.51 | spiro-OMeTAD | Au,nip,0,100.0,1.07,20.66,62.23,13.76,1.01,20.57,58.87,12.23,58.1275,12.6601,False,50.0,2023-04-25 02:00:00
2023-04-25 --Litos vs stability setup test,KB49,p7,test,Carlo,Glass | FTO | TiO2-c | TiO2-mp | Cs0.05FA0.79MA0.16PbI2.49Br0.51 | spiro-OMeTAD | Au,nip,0,100.0,1.04,22.64,60.95,14.35,1.0,22.51,55.91,12.59,58.1275,12.8618,False,50.0,2023-04-25 02:00:00
2023-04-25 --Litos vs stability setup test,KB49,p8,test,Carlo,Glass | FTO | TiO2-c | TiO2-mp | Cs0.05FA0.79MA0.16PbI2.49Br0.51 | spiro-OMeTAD | Au,nip,0,100.0,1.03,21.53,63.68,14.12,1.01,21.44,58.23,12.61,58.1275,12.9653,False,50.0,2023-04-25 02:00:00
2023-04-25 --Litos vs stability setup test,KB50,p1,test,Carlo,Glass | FTO | TiO2-c | TiO2-mp | Cs0.05FA0.79MA0.16PbI2.49Br0.51 | spiro-OMeTAD | Au,nip,0,100.0,0.81,18.72,52.86,8.02,0.8,18.49,50.69,7.5,58.1275,7.16076,False,50.0,2023-04-25 02:00:00
2023-04-25 --Litos vs stability setup test,KB50,p2,test,Carlo,Glass | FTO | TiO2-c | TiO2-mp | Cs0.05FA0.79MA0.16PbI2.49Br0.51 | spiro-OMeTAD | Au,nip,0,100.0,0.89,19.42,35.56,6.15,0.82,19.14,35.2,5.53,58.1275,5.23994,False,50.0,2023-04-25 02:00:00
2023-04-25 --Litos vs stability setup test,KB50,p3,test,Carlo,Glass | FTO | TiO2-c | TiO2-mp | Cs0.05FA0.79MA0.16PbI2.49Br0.51 | spiro-OMeTAD | Au,nip,0,100.0,0.86,20.47,55.98,9.85,0.84,20.34,52.3,8.94,58.1275,8.81177,False,50.0,2023-04-25 02:00:00
2023-04-25 --Litos vs stability setup test,KB50,p4,test,Carlo,Glass | FTO | TiO2-c | TiO2-mp | Cs0.05FA0.79MA0.16PbI2.49Br0.51 | spiro-OMeTAD | Au,nip,0,100.0,0.86,20.19,52.65,9.14,0.84,20.0,49.76,8.36,58.1275,8.1512,False,50.0,2023-04-25 02:00:00
2023-04-25 --Litos vs stability setup test,KB50,p5,test,Carlo,Glass | FTO | TiO2-c | TiO2-mp | Cs0.05FA0.79MA0.16PbI2.49Br0.51 | spiro-OMeTAD | Au,nip,0,100.0,0.9,20.5,55.19,10.18,0.88,20.33,52.14,9.33,58.1275,9.23665,False,50.0,2023-04-25 02:00:00
2023-04-25 --Litos vs stability setup test,KB50,p6,test,Carlo,Glass | FTO | TiO2-c | TiO2-mp | Cs0.05FA0.79MA0.16PbI2.49Br0.51 | spiro-OMeTAD | Au,nip,0,100.0,0.95,18.27,57.14,9.92,0.88,18.24,55.65,8.93,58.1275,8.94841,False,50.0,2023-04-25 02:00:00
2023-04-25 --Litos vs stability setup test,KB50,p7,test,Carlo,Glass | FTO | TiO2-c | TiO2-mp | Cs0.05FA0.79MA0.16PbI2.49Br0.51 | spiro-OMeTAD | Au,nip,0,100.0,0.9,20.05,58.6,10.57,0.88,20.0,54.09,9.52,58.1275,9.51316,False,50.0,2023-04-25 02:00:00
2023-04-25 --Litos vs stability setup test,KB50,p8,test,Carlo,Glass | FTO | TiO2-c | TiO2-mp | Cs0.05FA0.79MA0.16PbI2.49Br0.51 | spiro-OMeTAD | Au,nip,0,100.0,0.86,18.94,54.66,8.9,0.84,18.68,51.63,8.1,58.1275,8.04272,False,50.0,2023-04-25 02:00:00